
Integration time [ms]:  32,000
Averaging Nr. [scans]: 5
Smoothing Nr. [pixels]: 0
Data measured with spectrometer [name]: 1804343U2
Wave   ;Sample   ;Dark     ;Reference;Scope
[nm]   ;[counts] ;[counts] ;[counts] 

318,006;  -20,200;   11,200;    0,000
318,025;   25,800;   30,400;    0,000
318,044;   23,800;   24,800;    0,000
318,063;  -13,000;  -21,800;    0,000
318,082;   22,800;  -11,400;    0,000
318,102;   -8,200;   36,000;    0,000
318,121;   37,400;   18,800;    0,000
318,140;   10,400;   25,200;    0,000
318,159;  -25,000;    5,800;    0,000
318,179;   -2,000;   -8,800;    0,000
318,198;   23,000;   20,000;    0,000
318,217;    9,600;   15,400;    0,000
318,236;  -21,600;   -7,600;    0,000
318,255;   28,200;   21,400;    0,000
318,275;   20,600;    8,800;    0,000
318,294;  -15,400;  -35,800;    0,000
318,313;   15,200;   46,400;    0,000
318,332;   -9,800;  -10,000;    0,000
318,351;   11,600;   13,400;    0,000
318,370;    6,000;  -42,000;    0,000
318,390;    7,800;   -5,200;    0,000
318,409;   -1,800;   -5,400;    0,000
318,428;   17,200;  -12,400;    0,000
318,447;   -1,800;   -9,600;    0,000
318,466;   -3,800;   -7,400;    0,000
318,485;  -37,800;  -24,400;    0,000
318,505;    4,000;   13,400;    0,000
318,524;   -8,600;  -16,200;    0,000
318,543;    7,000;   40,200;    0,000
318,562;  -19,000;   -6,800;    0,000
318,581;   24,200;    1,400;    0,000
318,600;   19,600;    1,800;    0,000
318,620;   37,200;   32,400;    0,000
318,639;  -22,800;  -37,800;    0,000
318,658;   24,200;    2,400;    0,000
318,677;    1,800;    2,400;    0,000
318,696;   12,400;   17,800;    0,000
318,715;  -39,600;    2,400;    0,000
318,734;  -10,000;    1,400;    0,000
318,754;  -57,400;   21,000;    0,000
318,773;    8,800;   15,600;    0,000
318,792;  -35,000;   17,800;    0,000
318,811;   22,200;   22,400;    0,000
318,830;  -28,800;  -30,600;    0,000
318,849;   57,000;   44,400;    0,000
318,868;   11,000;  -39,400;    0,000
318,887;    3,000;   -1,600;    0,000
318,906;  -31,200;  -45,800;    0,000
318,926;    3,200;   26,600;    0,000
318,945;  -20,200;   23,400;    0,000
318,964;   16,600;   -7,000;    0,000
318,983;   -5,600;  -15,600;    0,000
319,002;   39,400;   15,600;    0,000
319,021;   -5,200;    4,600;    0,000
319,040;    0,800;   22,000;    0,000
319,059;   11,600;    3,400;    0,000
319,078;   18,800;   13,000;    0,000
319,097;   -6,400;   36,200;    0,000
319,117;    1,000;  -14,000;    0,000
319,136;  -27,200;    9,800;    0,000
319,155;  -24,400;    0,200;    0,000
319,174;    0,800;    0,200;    0,000
319,193;    5,800;  -12,000;    0,000
319,212;   14,000;    1,400;    0,000
319,231;   21,000;   13,400;    0,000
319,250;  -23,800;    6,400;    0,000
319,269;   -1,800;   28,600;    0,000
319,288;  -22,200;  -18,400;    0,000
319,307;    4,000;   17,400;    0,000
319,326;  -12,000;   35,600;    0,000
319,345;   86,400;   15,600;    0,000
319,364;   10,600;  -14,000;    0,000
319,384;   57,200;   40,800;    0,000
319,403;  -12,200;    0,400;    0,000
319,422;   35,000;   28,600;    0,000
319,441;   21,200;    7,000;    0,000
319,460;  -19,000;   27,600;    0,000
319,479;  -10,400;   18,400;    0,000
319,498;   38,600;   12,000;    0,000
319,517;  -20,200;   15,200;    0,000
319,536;   26,800;   13,800;    0,000
319,555;    1,800;  -28,600;    0,000
319,574;   21,000;   -6,800;    0,000
319,593;   23,200;   30,800;    0,000
319,612;   19,600;   29,400;    0,000
319,631;  -17,400;    9,000;    0,000
319,650;   12,400;   12,000;    0,000
319,669;    1,000;    1,800;    0,000
319,688;   52,000;   45,600;    0,000
319,707;   12,600;  -14,400;    0,000
319,726;   27,600;    9,400;    0,000
319,745;   -2,800;   -8,400;    0,000
319,764;   26,000;    7,200;    0,000
319,783;    3,600;   11,200;    0,000
319,802;   17,400;  -44,800;    0,000
319,821;   14,800;    0,600;    0,000
319,840;   -5,800;  -10,200;    0,000
319,859;   13,400;   28,400;    0,000
319,878;   20,200;   31,200;    0,000
319,897;  -12,000;   36,000;    0,000
319,916;    5,200;    2,200;    0,000
319,935;    6,600;   -0,600;    0,000
319,954;   61,400;    8,600;    0,000
319,973;    3,000;   20,400;    0,000
319,992;  -13,000;   -1,200;    0,000
320,011;    4,600;    8,400;    0,000
320,030;    7,600;   16,400;    0,000
320,049;   -0,200;   37,600;    0,000
320,068;    0,600;  -24,000;    0,000
320,087;  -12,800;    9,800;    0,000
320,106;   55,200;   23,000;    0,000
320,125;   -5,200;    1,000;    0,000
320,144;   21,600;   -5,200;    0,000
320,163;   30,200;   27,400;    0,000
320,182;    0,400;   49,600;    0,000
320,201;    2,200;   52,400;    0,000
320,220;   27,600;  -22,400;    0,000
320,239;   -0,200;   26,800;    0,000
320,257;   32,800;   33,400;    0,000
320,276;   11,400;   -7,400;    0,000
320,295;   22,400;   -0,200;    0,000
320,314;  -19,200;  -24,400;    0,000
320,333;   44,800;   43,000;    0,000
320,352;    1,000;   14,800;    0,000
320,371;   14,000;   55,000;    0,000
320,390;  -22,400;    7,200;    0,000
320,409;   36,200;   40,600;    0,000
320,428;   -2,600;  -12,400;    0,000
320,447;   13,600;   36,800;    0,000
320,466;  -10,600;   19,000;    0,000
320,485;   44,200;   37,200;    0,000
320,504;   -5,400;  -20,000;    0,000
320,522;   31,600;   -1,800;    0,000
320,541;    8,400;   24,000;    0,000
320,560;   16,200;   41,800;    0,000
320,579;   22,000;   19,400;    0,000
320,598;   56,600;   71,000;    0,000
320,617;   86,800;   96,200;    0,000
320,636;  151,600;  169,400;    0,000
320,655;  128,400;  169,800;    0,000
320,674;  122,400;  102,200;    0,000
320,693;   68,000;   31,600;    0,000
320,711;   37,200;   13,400;    0,000
320,730;  -32,200;    6,000;    0,000
320,749;   38,400;   35,200;    0,000
320,768;   18,000;   29,600;    0,000
320,787;   25,400;    7,400;    0,000
320,806;   -4,200;   -2,400;    0,000
320,825;   47,000;   21,000;    0,000
320,844;    6,400;   -7,600;    0,000
320,862;   11,400;   -5,200;    0,000
320,881;  -33,800;   -3,800;    0,000
320,900;   17,400;   15,600;    0,000
320,919;   10,800;  -13,000;    0,000
320,938;   25,200;   39,200;    0,000
320,957;   19,200;   20,200;    0,000
320,976;   23,800;   23,800;    0,000
320,994;  -12,600;   -6,200;    0,000
321,013;    6,800;    1,400;    0,000
321,032;    2,800;   19,000;    0,000
321,051;   22,200;   32,000;    0,000
321,070;   24,000;   47,000;    0,000
321,089;   33,800;    8,400;    0,000
321,108;  -17,800;    6,800;    0,000
321,126;   23,800;   -8,000;    0,000
321,145;   24,000;  -39,200;    0,000
321,164;   -2,200;   16,800;    0,000
321,183;  -25,000;   -8,800;    0,000
321,202;   37,000;    1,800;    0,000
321,221;  -14,800;   -3,400;    0,000
321,239;   44,800;    5,800;    0,000
321,258;    2,800;    9,600;    0,000
321,277;   27,800;   11,200;    0,000
321,296;   15,800;    1,400;    0,000
321,315;   35,600;   20,800;    0,000
321,333;    4,400;  -20,800;    0,000
321,352;  -12,400;    8,200;    0,000
321,371;  -46,400;    9,600;    0,000
321,390;   28,000;    4,400;    0,000
321,409;   16,400;   35,600;    0,000
321,427;   43,400;   19,200;    0,000
321,446;  -40,400;   17,400;    0,000
321,465;   55,000;   37,400;    0,000
321,484;  -41,000;  -17,800;    0,000
321,503;   46,000;   31,400;    0,000
321,521;    1,400;   23,400;    0,000
321,540;   44,400;    9,400;    0,000
321,559;  -21,600;  -31,000;    0,000
321,578;   -3,000;    2,000;    0,000
321,597;  -14,600;   -8,200;    0,000
321,615;    3,600;   27,400;    0,000
321,634;   17,600;    4,800;    0,000
321,653;   12,000;   40,200;    0,000
321,672;   16,000;    8,400;    0,000
321,690;   -6,000;   15,400;    0,000
321,709;   12,800;  -36,600;    0,000
321,728;   17,400;  -22,400;    0,000
321,747;  -20,400;    8,200;    0,000
321,765;   34,400;   -1,600;    0,000
321,784;  -10,600;    5,400;    0,000
321,803;   14,600;   17,600;    0,000
321,822;    8,600;   16,000;    0,000
321,840;   38,000;   19,200;    0,000
321,859;   -7,000;  -12,000;    0,000
321,878;   21,200;   11,400;    0,000
321,897;    9,000;   21,600;    0,000
321,915;   25,800;   14,000;    0,000
321,934;   34,200;   17,400;    0,000
321,953;   42,400;   -5,200;    0,000
321,972;   -6,200;   -4,200;    0,000
321,990;   71,000;   17,000;    0,000
322,009;    1,600;  -21,400;    0,000
322,028;   10,600;   50,000;    0,000
322,046;  -10,800;  -15,800;    0,000
322,065;   46,400;   -5,200;    0,000
322,084;   -3,400;   -1,600;    0,000
322,103;  -13,400;   18,200;    0,000
322,121;   12,200;   23,800;    0,000
322,140;    8,000;   12,400;    0,000
322,159;   11,800;   30,200;    0,000
322,177;   23,400;   33,400;    0,000
322,196;    6,600;  -14,800;    0,000
322,215;   25,200;   31,000;    0,000
322,234;    4,000;    9,800;    0,000
322,252;   45,200;  -11,800;    0,000
322,271;   -9,000;   34,200;    0,000
322,290;   70,800;   31,400;    0,000
322,308;   -3,200;    9,800;    0,000
322,327;   46,600;   12,800;    0,000
322,346;   18,400;  -19,400;    0,000
322,364;   17,600;    6,800;    0,000
322,383;   17,400;    9,200;    0,000
322,402;   17,800;   11,200;    0,000
322,420;   11,400;    0,800;    0,000
322,439;   32,600;    5,400;    0,000
322,458;   -1,200;   49,000;    0,000
322,476;   47,400;   20,200;    0,000
322,495;   -8,200;   -3,800;    0,000
322,514;   56,400;   23,600;    0,000
322,532;   -1,600;   26,400;    0,000
322,551;   48,800;   31,200;    0,000
322,570;   56,200;   35,400;    0,000
322,588;   16,600;   29,200;    0,000
322,607;   27,200;   33,800;    0,000
322,626;    0,400;  -29,200;    0,000
322,644;    6,800;    4,600;    0,000
322,663;   -0,800;   52,600;    0,000
322,681;   24,000;  -26,200;    0,000
322,700;   59,400;   70,000;    0,000
322,719;    1,000;  -16,200;    0,000
322,737;   29,400;   13,800;    0,000
322,756;  -25,000;    1,400;    0,000
322,775;   51,000;   27,400;    0,000
322,793;   16,600;   17,400;    0,000
322,812;   30,000;   35,400;    0,000
322,831;   23,600;   51,400;    0,000
322,849;   24,600;   25,000;    0,000
322,868;   16,400;   47,600;    0,000
322,886;   31,800;   30,200;    0,000
322,905;    9,800;   49,400;    0,000
322,924;   35,000;   30,200;    0,000
322,942;  -10,000;   -6,000;    0,000
322,961;   25,600;   17,400;    0,000
322,979;   36,400;    5,600;    0,000
322,998;    9,600;   19,200;    0,000
323,017;   28,600;  -19,200;    0,000
323,035;   54,400;   15,400;    0,000
323,054;   28,400;   22,000;    0,000
323,072;   56,600;   46,400;    0,000
323,091;   19,000;   56,000;    0,000
323,110;   14,800;   49,400;    0,000
323,128;   37,600;   52,200;    0,000
323,147;   33,200;   52,400;    0,000
323,165;   32,200;   46,400;    0,000
323,184;   77,800;   88,800;    0,000
323,202;   50,600;   12,600;    0,000
323,221;   32,400;   21,200;    0,000
323,240;   24,400;   64,200;    0,000
323,258;   93,800;   85,600;    0,000
323,277;   -2,200;   49,200;    0,000
323,295;   50,400;   29,600;    0,000
323,314;   34,600;   26,200;    0,000
323,332;   14,800;   61,400;    0,000
323,351;   42,800;   54,000;    0,000
323,369;   73,200;   54,000;    0,000
323,388;   52,000;   56,800;    0,000
323,407;   44,600;   50,800;    0,000
323,425;   36,000;   39,600;    0,000
323,444;   69,000;   66,200;    0,000
323,462;   35,800;   10,600;    0,000
323,481;   39,800;   78,400;    0,000
323,499;   43,200;   51,200;    0,000
323,518;   63,800;   78,600;    0,000
323,536;   83,200;   42,800;    0,000
323,555;   92,000;   42,800;    0,000
323,573;   44,000;   55,600;    0,000
323,592;  102,000;   57,400;    0,000
323,610;   30,800;   45,600;    0,000
323,629;   92,400;   99,200;    0,000
323,647;   62,000;   50,800;    0,000
323,666;   78,600;   69,400;    0,000
323,684;   60,000;   56,200;    0,000
323,703;  105,000;   81,400;    0,000
323,721;   67,000;   69,600;    0,000
323,740;   94,800;  104,200;    0,000
323,758;   66,200;   87,000;    0,000
323,777;   78,000;   65,800;    0,000
323,795;   58,200;   59,200;    0,000
323,814;   98,000;  146,400;    0,000
323,832;   98,200;   80,600;    0,000
323,851;  126,400;  136,600;    0,000
323,869;   59,400;  110,400;    0,000
323,888;  127,600;  158,400;    0,000
323,906;   87,600;   63,600;    0,000
323,925;  117,000;  103,600;    0,000
323,943;   82,400;   90,600;    0,000
323,962;  124,200;  134,000;    0,000
323,980;   95,600;   71,600;    0,000
323,999;   93,400;   98,600;    0,000
324,017;  115,000;  141,400;    0,000
324,036;  142,600;  134,400;    0,000
324,054;  142,600;  118,400;    0,000
324,073;  154,400;  152,200;    0,000
324,091;  143,400;  125,600;    0,000
324,109;  128,800;  149,400;    0,000
324,128;  138,600;  152,400;    0,000
324,146;  178,600;  180,800;    0,000
324,165;  110,600;  134,200;    0,000
324,183;  152,800;  171,000;    0,000
324,202;  139,600;  179,600;    0,000
324,220;  170,800;  173,400;    0,000
324,239;  167,200;  194,600;    0,000
324,257;  250,800;  215,000;    0,000
324,275;  273,200;  295,400;    0,000
324,294;  292,400;  293,800;    0,000
324,312;  229,800;  233,600;    0,000
324,331;  184,600;  228,400;    0,000
324,349;  202,600;  200,800;    0,000
324,368;  214,000;  200,000;    0,000
324,386;  168,800;  218,200;    0,000
324,404;  287,200;  309,200;    0,000
324,423;  266,200;  236,400;    0,000
324,441;  260,400;  244,000;    0,000
324,460;  188,600;  251,200;    0,000
324,478;  243,200;  242,000;    0,000
324,496;  254,600;  279,000;    0,000
324,515;  249,200;  211,400;    0,000
324,533;  218,000;  265,200;    0,000
324,552;  336,200;  369,600;    0,000
324,570;  334,000;  295,000;    0,000
324,588;  379,200;  409,000;    0,000
324,607;  416,800;  443,800;    0,000
324,625;  438,000;  462,400;    0,000
324,644;  458,600;  477,000;    0,000
324,662;  424,200;  443,000;    0,000
324,680;  409,800;  420,600;    0,000
324,699;  454,200;  455,600;    0,000
324,717;  488,400;  526,400;    0,000
324,735;  596,800;  581,000;    0,000
324,754;  647,600;  679,600;    0,000
324,772;  807,600;  757,600;    0,000
324,791;  517,200;  548,000;    0,000
324,809;  496,800;  465,600;    0,000
324,827;  528,400;  554,600;    0,000
324,846;  542,600;  563,800;    0,000
324,864;  596,800;  622,200;    0,000
324,882;  644,400;  607,600;    0,000
324,901;  594,800;  609,600;    0,000
324,919;  788,000;  772,600;    0,000
324,937;  841,800;  885,000;    0,000
324,956;  961,400; 1008,200;    0,000
324,974;  789,800;  863,000;    0,000
324,992;  833,400;  885,800;    0,000
325,011;  976,000; 1003,200;    0,000
325,029;  925,800;  883,000;    0,000
325,047;  824,400;  843,000;    0,000
325,066;  807,200;  903,200;    0,000
325,084;  730,000;  712,800;    0,000
325,102;  576,200;  578,200;    0,000
325,121;  520,000;  574,800;    0,000
325,139;  598,000;  627,200;    0,000
325,157;  812,000;  759,400;    0,000
325,176; 1265,800; 1259,200;    0,000
325,194; 2289,400; 2372,000;    0,000
325,212; 4128,600; 4055,200;    0,000
325,231; 5635,800; 5632,000;    0,000
325,249; 4966,800; 4999,800;    0,000
325,267; 2826,200; 2790,800;    0,000
325,285; 1692,600; 1697,000;    0,000
325,304; 1056,800; 1071,200;    0,000
325,322;  797,800;  764,800;    0,000
325,340;  712,400;  722,000;    0,000
325,359;  812,000;  824,200;    0,000
325,377;  654,000;  685,800;    0,000
325,395;  592,600;  579,600;    0,000
325,413;  522,800;  505,200;    0,000
325,432;  465,800;  478,000;    0,000
325,450;  429,600;  410,200;    0,000
325,468;  439,000;  423,600;    0,000
325,487;  484,800;  489,600;    0,000
325,505;  460,800;  477,600;    0,000
325,523;  391,400;  420,200;    0,000
325,541;  403,400;  364,400;    0,000
325,560;  366,400;  354,200;    0,000
325,578;  404,800;  394,800;    0,000
325,596;  421,600;  465,400;    0,000
325,614;  415,600;  437,800;    0,000
325,633;  374,200;  397,800;    0,000
325,651;  421,600;  388,200;    0,000
325,669;  389,800;  417,000;    0,000
325,687;  477,400;  467,000;    0,000
325,706;  470,600;  477,200;    0,000
325,724;  443,800;  480,000;    0,000
325,742;  515,200;  512,400;    0,000
325,760;  598,200;  579,800;    0,000
325,779;  561,600;  581,200;    0,000
325,797;  642,400;  655,200;    0,000
325,815;  697,000;  742,000;    0,000
325,833;  747,600;  771,000;    0,000
325,852;  867,600;  874,000;    0,000
325,870; 1016,800;  989,200;    0,000
325,888; 1256,400; 1255,000;    0,000
325,906; 1577,800; 1609,000;    0,000
325,924; 1851,800; 1898,800;    0,000
325,943; 2761,600; 2792,000;    0,000
325,961; 4755,000; 4870,400;    0,000
325,979; 8092,800; 8238,600;    0,000
325,997;15824,000;15904,800;    0,000
326,015;40188,602;40561,602;    0,000
326,034;64565,602;64576,602;    0,000
326,052;64587,602;64586,398;    0,000
326,070;64565,602;64576,602;    0,000
326,088;64587,602;64586,398;    0,000
326,106;64565,602;64576,602;    0,000
326,125;64587,602;64586,398;    0,000
326,143;64565,602;64576,602;    0,000
326,161;64587,602;64586,398;    0,000
326,179;64565,602;64576,602;    0,000
326,197;64587,602;64586,398;    0,000
326,216;64565,602;64576,602;    0,000
326,234;64587,602;64586,398;    0,000
326,252;64565,602;64576,602;    0,000
326,270;64587,602;64586,398;    0,000
326,288;64565,602;64576,602;    0,000
326,306;64587,602;64586,398;    0,000
326,325;64565,602;64576,602;    0,000
326,343;64587,602;64586,398;    0,000
326,361;64565,602;64576,602;    0,000
326,379;64587,602;64586,398;    0,000
326,397;64565,602;64576,602;    0,000
326,415;64587,602;64586,398;    0,000
326,433;64565,602;64576,602;    0,000
326,452;64587,602;64586,398;    0,000
326,470;64565,602;64576,602;    0,000
326,488; 1527,200; 2188,800;    0,000
326,506; 1688,000; 4560,600;    0,000
326,524; 1319,600; 1291,600;    0,000
326,542; 1221,600; 1250,200;    0,000
326,560; 1168,400; 1147,800;    0,000
326,579; 1104,400; 1138,600;    0,000
326,597; 1051,600; 1130,000;    0,000
326,615; 1146,600; 1128,000;    0,000
326,633; 1062,000; 1086,000;    0,000
326,651;  980,600; 1024,000;    0,000
326,669;  980,000;  944,000;    0,000
326,687;  939,000;  963,800;    0,000
326,705;  804,400;  788,400;    0,000
326,723;  719,000;  726,000;    0,000
326,742;  702,200;  729,600;    0,000
326,760;  760,400;  786,000;    0,000
326,778;  882,200;  856,000;    0,000
326,796;  835,800;  836,200;    0,000
326,814;  845,000;  884,000;    0,000
326,832; 1033,200; 1044,000;    0,000
326,850;  867,200;  961,400;    0,000
326,868;  841,200;  835,800;    0,000
326,886;  782,800;  832,000;    0,000
326,904;  714,200;  785,200;    0,000
326,922;  806,200;  830,800;    0,000
326,941;  847,000;  864,800;    0,000
326,959;  985,800; 1038,800;    0,000
326,977;  912,200;  941,200;    0,000
326,995;  895,000;  887,000;    0,000
327,013;  877,200;  907,600;    0,000
327,031;  991,800;  997,000;    0,000
327,049; 1004,000;  987,000;    0,000
327,067;  809,200;  843,200;    0,000
327,085;  722,400;  713,600;    0,000
327,103;  693,600;  703,600;    0,000
327,121;  659,600;  670,600;    0,000
327,139;  712,600;  747,800;    0,000
327,157;  761,000;  769,400;    0,000
327,175;  927,000;  912,400;    0,000
327,193;  785,400;  813,600;    0,000
327,211;  723,200;  717,200;    0,000
327,229;  803,600;  748,600;    0,000
327,247;  805,200;  837,200;    0,000
327,266; 1028,800; 1006,000;    0,000
327,284; 1097,000; 1110,400;    0,000
327,302; 1141,600; 1161,200;    0,000
327,320; 1092,800; 1091,000;    0,000
327,338;  808,400;  850,600;    0,000
327,356;  591,400;  582,800;    0,000
327,374;  358,200;  415,000;    0,000
327,392;  366,200;  426,200;    0,000
327,410;  548,400;  545,400;    0,000
327,428;  541,000;  547,800;    0,000
327,446;  366,000;  383,800;    0,000
327,464;  363,800;  366,000;    0,000
327,482;  380,000;  393,200;    0,000
327,500;  488,200;  443,000;    0,000
327,518;  503,800;  518,000;    0,000
327,536;  532,000;  523,400;    0,000
327,554;  494,800;  476,400;    0,000
327,572;  400,000;  377,800;    0,000
327,590;  289,000;  313,600;    0,000
327,608;  355,200;  319,400;    0,000
327,626;  302,000;  303,600;    0,000
327,644;  305,600;  291,200;    0,000
327,662;  241,000;  276,200;    0,000
