Hydrogen
Integration time [ms]: 600,000
Averaging Nr. [scans]: 10
Smoothing Nr. [pixels]: 0
Data measured with spectrometer [name]: 1804343U2
Wave   ;Sample   ;Dark     ;Reference;Scope
[nm]   ;[counts] ;[counts] ;[counts] 

318,006;  143,800;  149,100;    0,000
318,025;  141,400;   97,600;    0,000
318,044;   76,000;   68,100;    0,000
318,063; -313,800; -244,300;    0,000
318,082;  162,000;  151,600;    0,000
318,102;   72,600;   62,200;    0,000
318,121;  175,200;  111,300;    0,000
318,140;  -22,000;  -21,900;    0,000
318,159;  320,200;  244,000;    0,000
318,179;  -96,300;  -96,100;    0,000
318,198;  208,900;  144,100;    0,000
318,217;  521,800;  404,400;    0,000
318,236;  -12,600;   -4,500;    0,000
318,255; -175,800; -110,000;    0,000
318,275;  241,500;  202,500;    0,000
318,294; -338,600; -265,100;    0,000
318,313;  543,400;  444,600;    0,000
318,332;  -97,400;  -71,500;    0,000
318,351;  202,900;  159,300;    0,000
318,370; -183,100; -162,000;    0,000
318,390; -194,300; -147,300;    0,000
318,409;   -0,100;    2,800;    0,000
318,428;   18,800;   17,900;    0,000
318,447;  -38,700;  -61,000;    0,000
318,466; -214,800; -146,600;    0,000
318,485; -265,200; -180,700;    0,000
318,505;  146,700;  111,600;    0,000
318,524; -255,800; -186,600;    0,000
318,543;  285,300;  218,400;    0,000
318,562;   -9,600;  -19,800;    0,000
318,581;    9,900;   13,400;    0,000
318,600;  115,500;   61,100;    0,000
318,620;  388,200;  300,800;    0,000
318,639; -277,200; -201,100;    0,000
318,658;  185,800;  166,400;    0,000
318,677;   47,300;   31,400;    0,000
318,696;  150,200;  129,100;    0,000
318,715; -311,600; -230,700;    0,000
318,734;  -87,700;  -78,400;    0,000
318,754;   52,300;   68,900;    0,000
318,773;   60,800;   75,800;    0,000
318,792;  -56,300;  -95,500;    0,000
318,811;  267,800;  219,800;    0,000
318,830;  -99,000;  -69,200;    0,000
318,849;  300,800;  220,300;    0,000
318,868;  -39,000;  -66,400;    0,000
318,887;  -55,600;   -7,800;    0,000
318,906;  125,600;   81,500;    0,000
318,926;  233,100;  174,400;    0,000
318,945; -118,000; -101,100;    0,000
318,964;   56,000;   65,700;    0,000
318,983;   70,300;   37,300;    0,000
319,002;  254,400;  199,200;    0,000
319,021; -173,600; -153,400;    0,000
319,040;   59,900;   63,200;    0,000
319,059;  184,300;  143,400;    0,000
319,078;  111,000;  139,700;    0,000
319,097;  285,900;  235,100;    0,000
319,117;  -32,300;   -8,600;    0,000
319,136;   -3,000;  -14,400;    0,000
319,155;  -69,500;  -54,000;    0,000
319,174;  348,500;  275,700;    0,000
319,193;   -8,900;  -25,100;    0,000
319,212; -136,600; -107,000;    0,000
319,231; -110,800; -101,100;    0,000
319,250;   31,400;   16,300;    0,000
319,269;  316,400;  251,000;    0,000
319,288;  -97,800;  -50,500;    0,000
319,307; -208,300; -170,400;    0,000
319,326;  387,800;  288,700;    0,000
319,345;  287,200;  193,000;    0,000
319,364;   48,000;   25,000;    0,000
319,384;  432,700;  359,600;    0,000
319,403;   17,000;   22,800;    0,000
319,422;  434,700;  303,500;    0,000
319,441;   32,600;   -6,200;    0,000
319,460;  157,100;  152,100;    0,000
319,479;  -50,300;  -65,500;    0,000
319,498;  307,300;  240,300;    0,000
319,517;  230,400;  196,800;    0,000
319,536;  231,900;  185,800;    0,000
319,555;  -76,600;  -87,200;    0,000
319,574;  -11,700;  -32,300;    0,000
319,593;  127,800;   80,400;    0,000
319,612;  271,400;  234,700;    0,000
319,631;  -87,900;  -80,500;    0,000
319,650;  446,600;  333,600;    0,000
319,669;  -84,300;  -67,700;    0,000
319,688;  412,900;  318,600;    0,000
319,707; -179,600; -175,700;    0,000
319,726;  263,800;  208,100;    0,000
319,745; -155,600; -149,400;    0,000
319,764;  123,300;  119,700;    0,000
319,783;  308,900;  268,900;    0,000
319,802; -293,000; -237,500;    0,000
319,821;  218,200;  162,700;    0,000
319,840; -184,400; -115,500;    0,000
319,859;  577,500;  463,500;    0,000
319,878;  332,000;  284,500;    0,000
319,897;  198,000;  141,900;    0,000
319,916;  141,800;  110,500;    0,000
319,935; -118,300;  -88,000;    0,000
319,954;  147,700;   78,500;    0,000
319,973;  390,100;  301,000;    0,000
319,992;  172,400;  139,100;    0,000
320,011;  -93,900;  -86,700;    0,000
320,030;  240,100;  188,900;    0,000
320,049;   -5,200;   14,700;    0,000
320,068;  142,100;  149,800;    0,000
320,087;  -63,300;  -43,100;    0,000
320,106;  258,100;  238,100;    0,000
320,125;   -8,400;  -29,400;    0,000
320,144;  106,000;  124,600;    0,000
320,163;  149,500;   87,500;    0,000
320,182;  211,800;  152,000;    0,000
320,201;  219,100;  134,500;    0,000
320,220;  180,500;  146,900;    0,000
320,239;  221,300;  143,300;    0,000
320,257;  568,200;  444,400;    0,000
320,276;   69,900;   10,700;    0,000
320,295;  -77,500;  -63,200;    0,000
320,314;  -29,400;  -13,300;    0,000
320,333;  248,000;  164,400;    0,000
320,352;   -1,500;  -34,400;    0,000
320,371;  200,800;  175,000;    0,000
320,390;    3,300;   -0,200;    0,000
320,409;   45,600;   53,300;    0,000
320,428; -249,800; -214,300;    0,000
320,447;   -0,700;    6,100;    0,000
320,466; -143,400; -100,300;    0,000
320,485;  181,900;  150,100;    0,000
320,504;  -43,200;  -32,900;    0,000
320,522;   40,200;   26,200;    0,000
320,541;  195,500;  166,100;    0,000
320,560;  253,000;  174,900;    0,000
320,579; -156,400; -111,700;    0,000
320,598;  100,300;   97,000;    0,000
320,617; -212,500; -171,400;    0,000
320,636;   16,300;    2,200;    0,000
320,655;  -46,100;  -44,200;    0,000
320,674;  396,200;  309,100;    0,000
320,693;  210,800;  177,100;    0,000
320,711;   67,100;   64,300;    0,000
320,730; -113,600; -114,400;    0,000
320,749;  438,400;  332,100;    0,000
320,768;  227,000;  199,700;    0,000
320,787;  322,100;  241,300;    0,000
320,806; -224,700; -156,100;    0,000
320,825;  206,400;  149,900;    0,000
320,844; -139,800; -105,200;    0,000
320,862;  -78,100;  -71,700;    0,000
320,881; -127,600; -101,500;    0,000
320,900;  261,200;  219,600;    0,000
320,919; -193,900; -163,300;    0,000
320,938;   25,500;   16,700;    0,000
320,957;  236,800;  159,700;    0,000
320,976;  326,500;  231,400;    0,000
320,994;  -33,000;  -10,000;    0,000
321,013;  -31,500;  -49,500;    0,000
321,032;  -40,700;  -21,400;    0,000
321,051;  518,600;  417,900;    0,000
321,070;  179,400;  136,500;    0,000
321,089;  342,600;  234,100;    0,000
321,108; -374,700; -321,800;    0,000
321,126;   94,300;   99,100;    0,000
321,145;  121,600;  111,400;    0,000
321,164; -126,700;  -76,800;    0,000
321,183; -212,900; -167,700;    0,000
321,202;   46,000;   57,500;    0,000
321,221; -423,100; -350,300;    0,000
321,239;  -42,300;  -13,800;    0,000
321,258;  153,300;  122,400;    0,000
321,277;  158,100;  125,800;    0,000
321,296; -193,800; -163,500;    0,000
321,315;  135,300;  102,200;    0,000
321,333;  -32,000;  -26,500;    0,000
321,352; -128,800;  -89,200;    0,000
321,371; -144,600; -118,600;    0,000
321,390;  271,900;  220,700;    0,000
321,409;  -36,100;  -46,800;    0,000
321,427;   76,200;   57,800;    0,000
321,446; -156,400; -146,300;    0,000
321,465;  278,900;  229,900;    0,000
321,484; -297,900; -253,300;    0,000
321,503;  405,000;  300,500;    0,000
321,521;   68,900;   18,000;    0,000
321,540;  225,000;  177,200;    0,000
321,559; -146,200; -139,400;    0,000
321,578; -200,500; -147,600;    0,000
321,597; -116,200;  -95,700;    0,000
321,615;   28,300;   12,900;    0,000
321,634;  -41,000;  -38,400;    0,000
321,653;   35,700;   81,700;    0,000
321,672;    5,900;  -35,000;    0,000
321,690;  -63,300;  -17,900;    0,000
321,709; -154,300; -116,600;    0,000
321,728;   55,900;   22,800;    0,000
321,747;  -52,100;  -60,000;    0,000
321,765;  131,500;   94,700;    0,000
321,784;   80,300;   94,900;    0,000
321,803;  378,400;  289,200;    0,000
321,822;  298,700;  230,700;    0,000
321,840;  183,500;  114,800;    0,000
321,859;  159,100;  101,900;    0,000
321,878;  374,100;  302,900;    0,000
321,897;   65,100;   29,800;    0,000
321,915;  -22,700;  -19,600;    0,000
321,934;  -42,200;  -36,800;    0,000
321,953;  163,800;  148,700;    0,000
321,972; -260,800; -188,400;    0,000
321,990;  425,900;  362,600;    0,000
322,009; -260,400; -202,400;    0,000
322,028;  331,200;  276,300;    0,000
322,046;  -48,900;   -5,100;    0,000
322,065;  263,200;  222,600;    0,000
322,084;   85,200;   88,800;    0,000
322,103; -131,000;  -67,700;    0,000
322,121; -201,200; -153,600;    0,000
322,140;  -69,100;  -18,400;    0,000
322,159;  154,800;  128,000;    0,000
322,177;    4,300;   22,100;    0,000
322,196; -119,600; -124,400;    0,000
322,215; -135,600; -101,600;    0,000
322,234;  -44,800;  -80,100;    0,000
322,252;  166,300;  143,500;    0,000
322,271;   32,100;    4,800;    0,000
322,290;  116,100;  100,800;    0,000
322,308;    1,200;  -20,900;    0,000
322,327;  221,900;  163,100;    0,000
322,346;   46,100;   32,200;    0,000
322,364;  -29,600;  -29,500;    0,000
322,383; -107,100;  -72,300;    0,000
322,402;   79,800;   72,600;    0,000
322,420; -125,800;  -94,400;    0,000
322,439;   67,900;   78,100;    0,000
322,458; -200,600; -149,800;    0,000
322,476;   38,700;   25,400;    0,000
322,495;  -61,400;  -57,200;    0,000
322,514;   85,200;   68,800;    0,000
322,532;  187,400;  150,500;    0,000
322,551;  370,800;  273,000;    0,000
322,570;  354,400;  275,200;    0,000
322,588;  299,200;  278,700;    0,000
322,607;  -26,500;  -25,100;    0,000
322,626; -157,900;  -80,600;    0,000
322,644;   -6,900;  -14,700;    0,000
322,663;  111,200;   62,500;    0,000
322,681; -172,700; -128,100;    0,000
322,700;  348,600;  276,900;    0,000
322,719; -169,100; -147,700;    0,000
322,737;  150,700;  119,500;    0,000
322,756;  -15,000;   -0,300;    0,000
322,775;  -35,500;  -16,800;    0,000
322,793; -254,200; -194,100;    0,000
322,812;   42,000;   65,000;    0,000
322,831;  -63,000;  -75,600;    0,000
322,849;  206,300;  145,200;    0,000
322,868;   55,000;   62,900;    0,000
322,886;  157,600;  145,800;    0,000
322,905;  185,100;  112,800;    0,000
322,924;    3,500;    0,600;    0,000
322,942; -239,700; -215,200;    0,000
322,961;  354,900;  286,200;    0,000
322,979;  246,600;  191,300;    0,000
322,998;  -49,500;  -40,200;    0,000
323,017; -135,300; -134,600;    0,000
323,035; -177,400;  -95,000;    0,000
323,054;   73,500;   33,700;    0,000
323,072;  139,400;  120,200;    0,000
323,091; -111,600;  -84,800;    0,000
323,110;   68,800;   63,400;    0,000
323,128;  330,300;  218,900;    0,000
323,147;  131,700;  130,600;    0,000
323,165;  110,800;   92,300;    0,000
323,184;  597,900;  503,500;    0,000
323,202;   77,900;   41,100;    0,000
323,221;  132,100;   91,100;    0,000
323,240; -148,100;  -95,700;    0,000
323,258;  554,800;  452,700;    0,000
323,277; -132,400; -130,600;    0,000
323,295;  344,300;  289,600;    0,000
323,314;  119,800;   94,100;    0,000
323,332; -125,400;  -91,900;    0,000
323,351; -103,700;  -98,900;    0,000
323,369;  217,500;  215,000;    0,000
323,388; -201,900; -178,000;    0,000
323,407;  279,500;  213,800;    0,000
323,425; -158,800; -127,300;    0,000
323,444;  149,900;  117,700;    0,000
323,462;   24,800;   52,400;    0,000
323,481;  179,600;  162,200;    0,000
323,499;  251,600;  185,700;    0,000
323,518;   11,400;    5,700;    0,000
323,536;  362,700;  281,800;    0,000
323,555;  160,400;  134,800;    0,000
323,573; -164,200; -157,400;    0,000
323,592;  145,500;  130,200;    0,000
323,610; -284,200; -208,200;    0,000
323,629;  222,400;  211,600;    0,000
323,647; -322,600; -246,100;    0,000
323,666;   44,000;   51,000;    0,000
323,684; -158,900; -152,800;    0,000
323,703;  227,300;  179,300;    0,000
323,721; -106,000;  -75,700;    0,000
323,740;  644,300;  508,300;    0,000
323,758;  620,800;  500,200;    0,000
323,777;   86,400;   97,700;    0,000
323,795; -128,900; -107,400;    0,000
323,814;  296,300;  197,900;    0,000
323,832;    5,100;   -0,400;    0,000
323,851;  269,500;  212,500;    0,000
323,869;   -8,100;   10,500;    0,000
323,888;  249,700;  167,700;    0,000
323,906;  -11,100;  -12,900;    0,000
323,925;  303,100;  241,500;    0,000
323,943;  -78,900;  -64,300;    0,000
323,962;  352,700;  259,300;    0,000
323,980;  -45,400;  -59,800;    0,000
323,999;  -34,100;  -44,400;    0,000
324,017;   24,600;    6,500;    0,000
324,036;   43,100;   56,200;    0,000
324,054;  -92,100;  -66,800;    0,000
324,073;  602,700;  483,200;    0,000
324,091; -178,100; -142,300;    0,000
324,109;  -18,000;   -9,200;    0,000
324,128;  -77,400;  -53,200;    0,000
324,146;  518,300;  432,300;    0,000
324,165; -197,700; -123,400;    0,000
324,183;   93,500;   56,400;    0,000
324,202;   52,000;   27,400;    0,000
324,220; -162,200; -116,700;    0,000
324,239; -276,100; -207,400;    0,000
324,257;  116,900;   93,900;    0,000
324,275;  -33,800;  -39,500;    0,000
324,294; -265,700; -205,700;    0,000
324,312;   87,400;   79,300;    0,000
324,331;   -5,700;   35,600;    0,000
324,349;  -35,000;  -11,500;    0,000
324,368;   40,300;   47,400;    0,000
324,386; -145,500; -133,200;    0,000
324,404;  312,900;  272,500;    0,000
324,423;   17,700;    2,500;    0,000
324,441;  276,000;  196,000;    0,000
324,460;   -7,600;  -23,900;    0,000
324,478;   64,200;   68,300;    0,000
324,496;  411,000;  359,000;    0,000
324,515;   53,400;   47,200;    0,000
324,533;  -28,300;  -25,700;    0,000
324,552;  636,700;  485,800;    0,000
324,570; -109,100; -104,100;    0,000
324,588;  719,400;  553,400;    0,000
324,607;  -51,700;  -41,600;    0,000
324,625;   -3,400;  -27,700;    0,000
324,644;  218,400;  172,100;    0,000
324,662;  323,800;  215,900;    0,000
324,680; -115,600; -110,100;    0,000
324,699;   -2,500;  -15,900;    0,000
324,717;  -84,500;  -37,700;    0,000
324,735;   -1,600;   10,700;    0,000
324,754; -120,300; -141,500;    0,000
324,772;  381,600;  311,300;    0,000
324,791;  -17,400;  -31,900;    0,000
324,809;   29,400;   11,600;    0,000
324,827; -127,200;  -87,400;    0,000
324,846; -160,000; -100,800;    0,000
324,864;  249,900;  178,100;    0,000
324,882; -306,600; -230,800;    0,000
324,901; -325,000; -279,500;    0,000
324,919;  241,100;  222,500;    0,000
324,937; -368,900; -294,300;    0,000
324,956;  125,000;   70,400;    0,000
324,974;  -60,300;  -37,600;    0,000
324,992;   26,800;   51,500;    0,000
325,011;   74,400;   54,100;    0,000
325,029;   39,600;   22,200;    0,000
325,047; -210,200; -191,400;    0,000
325,066;   -1,000;    5,900;    0,000
325,084; -258,200; -216,100;    0,000
325,102;  246,800;  177,600;    0,000
325,121;  134,700;  123,500;    0,000
325,139;  139,100;   90,200;    0,000
325,157; -276,200; -214,100;    0,000
325,176;  323,800;  234,200;    0,000
325,194; -266,000; -195,300;    0,000
325,212;  -73,800;  -57,900;    0,000
325,231;   14,800;   35,600;    0,000
325,249;   96,300;   78,100;    0,000
325,267; -113,100;  -84,600;    0,000
325,285;   51,900;   37,000;    0,000
325,304;  181,800;  139,400;    0,000
325,322;  221,100;  225,600;    0,000
325,340;  110,300;   63,000;    0,000
325,359;  294,100;  241,500;    0,000
325,377;    2,600;  -48,000;    0,000
325,395;  137,800;  117,000;    0,000
325,413;  141,000;   57,200;    0,000
325,432;   40,200;   17,000;    0,000
325,450;  127,200;   98,200;    0,000
325,468;  354,100;  257,200;    0,000
325,487;  166,800;  131,000;    0,000
325,505;  278,500;  195,000;    0,000
325,523; -152,500; -112,300;    0,000
325,541;  -64,600;  -73,700;    0,000
325,560; -159,400; -104,800;    0,000
325,578;  265,800;  242,300;    0,000
325,596;  269,700;  211,000;    0,000
325,614; -228,100; -164,400;    0,000
325,633;  329,000;  268,500;    0,000
325,651;  157,600;  107,200;    0,000
325,669;   79,900;   43,400;    0,000
325,687;   74,200;   91,400;    0,000
325,706;  422,300;  302,200;    0,000
325,724;   70,500;   66,000;    0,000
325,742;  212,000;  153,700;    0,000
325,760;  -54,200;  -40,100;    0,000
325,779; -432,900; -335,300;    0,000
325,797;  -71,600;  -61,600;    0,000
325,815; -454,700; -376,600;    0,000
325,833; -294,900; -234,600;    0,000
325,852;   12,400;   -4,500;    0,000
325,870;  155,400;  100,800;    0,000
325,888; -232,200; -213,500;    0,000
325,906;   99,000;   75,400;    0,000
325,924; -160,400; -154,600;    0,000
325,943;   47,500;   36,700;    0,000
325,961;  313,100;  249,900;    0,000
325,979; -175,800; -140,200;    0,000
325,997; -242,300; -199,400;    0,000
326,015;  -52,000;  -11,400;    0,000
326,034; -279,200; -217,300;    0,000
326,052;   77,200;   20,000;    0,000
326,070;   60,800;   52,700;    0,000
326,088;  220,900;  161,300;    0,000
326,106;  233,700;  155,700;    0,000
326,125;  -61,900;  -41,400;    0,000
326,143; -244,400; -206,800;    0,000
326,161;  257,600;  202,500;    0,000
326,179; -145,000; -111,600;    0,000
326,197;   21,700;   14,300;    0,000
326,216; -352,500; -306,800;    0,000
326,234;   68,900;   64,900;    0,000
326,252;  141,000;  104,400;    0,000
326,270;  236,200;  153,400;    0,000
326,288;   79,100;   50,200;    0,000
326,306;  195,100;  155,700;    0,000
326,325;   89,200;   35,700;    0,000
326,343;   97,400;   74,200;    0,000
326,361; -219,500; -158,400;    0,000
326,379;  226,100;  198,200;    0,000
326,397;  -43,000;  -23,000;    0,000
326,415;   76,600;   88,300;    0,000
326,433; -277,400; -245,400;    0,000
326,452;  231,400;  206,200;    0,000
326,470; -253,000; -195,200;    0,000
326,488;  174,200;  149,600;    0,000
326,506;    2,500;  -33,200;    0,000
326,524;  244,600;  195,700;    0,000
326,542;  302,500;  215,400;    0,000
326,560;  185,600;  163,200;    0,000
326,579;   52,500;   10,900;    0,000
326,597;  166,200;  127,100;    0,000
326,615;  230,900;  210,200;    0,000
326,633;  170,000;  126,100;    0,000
326,651;  160,900;  115,400;    0,000
326,669;  109,200;  105,800;    0,000
326,687; -162,800; -153,800;    0,000
326,705;  255,400;  206,700;    0,000
326,723;  102,000;   62,000;    0,000
326,742; -101,600;  -66,800;    0,000
326,760;  140,400;   77,600;    0,000
326,778;  181,000;  105,100;    0,000
326,796;  -48,600;  -45,500;    0,000
326,814; -156,800; -128,300;    0,000
326,832;   42,100;   46,100;    0,000
326,850;  -96,100; -112,400;    0,000
326,868; -423,200; -310,600;    0,000
326,886;  227,900;  206,000;    0,000
326,904;   12,700;   26,900;    0,000
326,922;   63,900;   70,700;    0,000
326,941; -245,300; -186,500;    0,000
326,959;  267,400;  250,400;    0,000
326,977;  -16,300;  -25,100;    0,000
326,995;   25,200;   34,900;    0,000
327,013; -123,900;  -93,100;    0,000
327,031; -153,200; -117,000;    0,000
327,049; -231,500; -184,800;    0,000
327,067;  -63,600;  -31,800;    0,000
327,085;  297,800;  225,800;    0,000
327,103;  320,000;  251,900;    0,000
327,121; -360,800; -272,300;    0,000
327,139;   70,900;   64,000;    0,000
327,157;  -52,200;  -61,400;    0,000
327,175;  424,500;  329,100;    0,000
327,193;  144,600;  118,600;    0,000
327,211;   -0,900;   -6,100;    0,000
327,229;   -1,300;    1,500;    0,000
327,247;  -74,000;  -57,700;    0,000
327,266;   67,600;   75,000;    0,000
327,284;  144,500;  106,500;    0,000
327,302;  102,800;   55,400;    0,000
327,320;  315,000;  267,100;    0,000
327,338;   81,800;  103,600;    0,000
327,356;  -19,200;    5,900;    0,000
327,374; -164,800; -130,300;    0,000
327,392;   44,400;   49,800;    0,000
327,410; -202,100; -172,400;    0,000
327,428;  196,200;  139,900;    0,000
327,446; -153,500; -109,200;    0,000
327,464;  196,400;  149,100;    0,000
327,482;  140,600;   82,700;    0,000
327,500;  -83,000;  -87,700;    0,000
327,518;  -98,200;  -83,000;    0,000
327,536;  470,800;  349,000;    0,000
327,554;  173,800;  125,400;    0,000
327,572;  109,400;   84,600;    0,000
327,590; -177,300; -151,300;    0,000
327,608;  209,800;  176,100;    0,000
327,626;  360,200;  258,300;    0,000
327,644;   15,100;   44,300;    0,000
327,662;  -39,100;  -33,200;    0,000
