
Integration time [ms]: 600,000
Averaging Nr. [scans]: 1
Smoothing Nr. [pixels]: 0
Data measured with spectrometer [name]: 1804343U2
Wave   ;Sample   ;Dark     ;Reference;Scope
[nm]   ;[counts] ;[counts] ;[counts] 

318,006;   83,000;   90,000;    0,000
318,025;   61,000;   29,000;    0,000
318,044;  121,000;  181,000;    0,000
318,063; -339,000; -247,000;    0,000
318,082;  226,000;  160,000;    0,000
318,102;   69,000;   13,000;    0,000
318,121;  198,000;  164,000;    0,000
318,140;  -34,000; -135,000;    0,000
318,159;  352,000;  386,000;    0,000
318,179;  -74,000; -118,000;    0,000
318,198;  220,000;  224,000;    0,000
318,217;  486,000;  508,000;    0,000
318,236;  -44,000;   48,000;    0,000
318,255; -153,000; -197,000;    0,000
318,275;  222,000;  251,000;    0,000
318,294; -363,000; -300,000;    0,000
318,313;  550,000;  512,000;    0,000
318,332; -137,000; -124,000;    0,000
318,351;  171,000;   93,000;    0,000
318,370; -242,000; -208,000;    0,000
318,390; -160,000; -188,000;    0,000
318,409;   22,000;   86,000;    0,000
318,428;   -1,000;   14,000;    0,000
318,447; -151,000;  -21,000;    0,000
318,466; -144,000; -128,000;    0,000
318,485; -315,000; -186,000;    0,000
318,505;  156,000;   -3,000;    0,000
318,524; -329,000; -357,000;    0,000
318,543;  232,000;  321,000;    0,000
318,562;  -77,000;  -20,000;    0,000
318,581;   30,000;   47,000;    0,000
318,600;   91,000;  139,000;    0,000
318,620;  333,000;  409,000;    0,000
318,639; -239,000; -249,000;    0,000
318,658;  105,000;  136,000;    0,000
318,677;  120,000;  -78,000;    0,000
318,696;  159,000;   97,000;    0,000
318,715; -210,000; -319,000;    0,000
318,734; -106,000; -145,000;    0,000
318,754;  -10,000;  120,000;    0,000
318,773;   97,000;   23,000;    0,000
318,792; -177,000;  -95,000;    0,000
318,811;  316,000;  154,000;    0,000
318,830; -142,000;  -20,000;    0,000
318,849;  286,000;  280,000;    0,000
318,868;  -34,000; -170,000;    0,000
318,887; -127,000;  -12,000;    0,000
318,906;  117,000;  -35,000;    0,000
318,926;  210,000;   98,000;    0,000
318,945; -156,000;  -54,000;    0,000
318,964;   66,000;   89,000;    0,000
318,983;   32,000;  -10,000;    0,000
319,002;  318,000;  200,000;    0,000
319,021; -252,000; -239,000;    0,000
319,040;   33,000;   -9,000;    0,000
319,059;  208,000;   55,000;    0,000
319,078;  113,000;  131,000;    0,000
319,097;  166,000;  260,000;    0,000
319,117;  -23,000;   70,000;    0,000
319,136;   36,000;  -60,000;    0,000
319,155; -107,000;  -65,000;    0,000
319,174;  378,000;  378,000;    0,000
319,193;   88,000;   58,000;    0,000
319,212; -194,000; -107,000;    0,000
319,231;  -63,000; -100,000;    0,000
319,250;  -52,000;  -20,000;    0,000
319,269;  166,000;  317,000;    0,000
319,288; -151,000; -103,000;    0,000
319,307; -184,000; -190,000;    0,000
319,326;  276,000;  344,000;    0,000
319,345;  291,000;  322,000;    0,000
319,364;   46,000;   47,000;    0,000
319,384;  288,000;  448,000;    0,000
319,403;   53,000;   13,000;    0,000
319,422;  357,000;  452,000;    0,000
319,441;  -31,000;  -77,000;    0,000
319,460;  202,000;  175,000;    0,000
319,479;  -59,000; -138,000;    0,000
319,498;  306,000;  218,000;    0,000
319,517;  156,000;  216,000;    0,000
319,536;  274,000;  225,000;    0,000
319,555;  -58,000; -128,000;    0,000
319,574;  -24,000;  -27,000;    0,000
319,593;  -24,000;  105,000;    0,000
319,612;  239,000;  236,000;    0,000
319,631; -128,000;  -59,000;    0,000
319,650;  524,000;  460,000;    0,000
319,669; -113,000; -109,000;    0,000
319,688;  323,000;  388,000;    0,000
319,707; -201,000; -152,000;    0,000
319,726;  103,000;  188,000;    0,000
319,745; -135,000; -234,000;    0,000
319,764;    9,000;  167,000;    0,000
319,783;  293,000;  296,000;    0,000
319,802; -241,000; -302,000;    0,000
319,821;  181,000;  162,000;    0,000
319,840; -140,000; -121,000;    0,000
319,859;  570,000;  614,000;    0,000
319,878;  352,000;  290,000;    0,000
319,897;  159,000;  287,000;    0,000
319,916;  152,000;  169,000;    0,000
319,935; -107,000; -148,000;    0,000
319,954;  200,000;   73,000;    0,000
319,973;  319,000;  291,000;    0,000
319,992;  211,000;  163,000;    0,000
320,011;  -95,000; -141,000;    0,000
320,030;  258,000;  214,000;    0,000
320,049;    3,000; -109,000;    0,000
320,068;  199,000;  129,000;    0,000
320,087; -101,000;  -50,000;    0,000
320,106;  308,000;  245,000;    0,000
320,125;  -64,000;   97,000;    0,000
320,144;  107,000;   55,000;    0,000
320,163;  101,000;   59,000;    0,000
320,182;  193,000;  185,000;    0,000
320,201;   73,000;   77,000;    0,000
320,220;  193,000;  246,000;    0,000
320,239;  151,000;   94,000;    0,000
320,257;  510,000;  525,000;    0,000
320,276;   46,000;   37,000;    0,000
320,295;  -98,000;   10,000;    0,000
320,314;   16,000;  -77,000;    0,000
320,333;  237,000;  129,000;    0,000
320,352;  -38,000; -129,000;    0,000
320,371;  116,000;  234,000;    0,000
320,390;   56,000;   57,000;    0,000
320,409;   29,000;   45,000;    0,000
320,428; -238,000; -287,000;    0,000
320,447;   58,000;    1,000;    0,000
320,466;  -93,000; -165,000;    0,000
320,485;  213,000;  162,000;    0,000
320,504;  -94,000;  -51,000;    0,000
320,522;   44,000;  -10,000;    0,000
320,541;  212,000;   87,000;    0,000
320,560;  199,000;  171,000;    0,000
320,579; -210,000; -243,000;    0,000
320,598;   42,000;   84,000;    0,000
320,617;  -51,000; -199,000;    0,000
320,636;  -17,000;    5,000;    0,000
320,655;  -35,000;  -72,000;    0,000
320,674;  316,000;  432,000;    0,000
320,693;  212,000;   98,000;    0,000
320,711;   82,000;   62,000;    0,000
320,730; -167,000; -179,000;    0,000
320,749;  460,000;  416,000;    0,000
320,768;  223,000;  272,000;    0,000
320,787;  271,000;  357,000;    0,000
320,806; -198,000; -221,000;    0,000
320,825;  188,000;  250,000;    0,000
320,844; -183,000; -154,000;    0,000
320,862; -131,000;  -12,000;    0,000
320,881;  -67,000; -163,000;    0,000
320,900;  276,000;  247,000;    0,000
320,919;  -97,000; -125,000;    0,000
320,938;   28,000;   57,000;    0,000
320,957;  154,000;   76,000;    0,000
320,976;  310,000;  366,000;    0,000
320,994;   -7,000;  -42,000;    0,000
321,013;  -71,000;   43,000;    0,000
321,032;   41,000; -155,000;    0,000
321,051;  438,000;  472,000;    0,000
321,070;  200,000;  125,000;    0,000
321,089;  310,000;  325,000;    0,000
321,108; -440,000; -360,000;    0,000
321,126;    8,000;  124,000;    0,000
321,145;  178,000;  104,000;    0,000
321,164; -113,000;  -52,000;    0,000
321,183; -146,000; -197,000;    0,000
321,202;  113,000;    4,000;    0,000
321,221; -343,000; -438,000;    0,000
321,239;  -80,000;  -28,000;    0,000
321,258;  185,000;  144,000;    0,000
321,277;  176,000;  123,000;    0,000
321,296; -298,000; -198,000;    0,000
321,315;   38,000;  171,000;    0,000
321,333;   41,000;  -46,000;    0,000
321,352;  -86,000;  -60,000;    0,000
321,371; -243,000; -216,000;    0,000
321,390;  258,000;  209,000;    0,000
321,409;  -34,000; -100,000;    0,000
321,427;   24,000;   33,000;    0,000
321,446;  -40,000; -114,000;    0,000
321,465;  264,000;  264,000;    0,000
321,484; -354,000; -319,000;    0,000
321,503;  392,000;  400,000;    0,000
321,521;   -3,000;   93,000;    0,000
321,540;  215,000;  241,000;    0,000
321,559; -149,000; -150,000;    0,000
321,578; -156,000; -182,000;    0,000
321,597; -147,000; -118,000;    0,000
321,615;   -4,000;   62,000;    0,000
321,634;   13,000;   91,000;    0,000
321,653;   65,000;   -5,000;    0,000
321,672;   31,000;  -35,000;    0,000
321,690;   46,000;  -53,000;    0,000
321,709; -115,000; -225,000;    0,000
321,728;  276,000;  105,000;    0,000
321,747; -170,000; -182,000;    0,000
321,765;  115,000;  108,000;    0,000
321,784;   40,000;  100,000;    0,000
321,803;  316,000;  429,000;    0,000
321,822;  211,000;  189,000;    0,000
321,840;  130,000;   87,000;    0,000
321,859;  221,000;   32,000;    0,000
321,878;  389,000;  302,000;    0,000
321,897;   33,000;   47,000;    0,000
321,915;  -37,000;  -20,000;    0,000
321,934;  -78,000;  -80,000;    0,000
321,953;  270,000;  204,000;    0,000
321,972; -224,000; -161,000;    0,000
321,990;  490,000;  299,000;    0,000
322,009; -287,000; -276,000;    0,000
322,028;  380,000;  326,000;    0,000
322,046;  -74,000; -104,000;    0,000
322,065;  275,000;  271,000;    0,000
322,084;   88,000;   46,000;    0,000
322,103; -136,000; -168,000;    0,000
322,121; -189,000; -245,000;    0,000
322,140;  -68,000;  -48,000;    0,000
322,159;   51,000;  118,000;    0,000
322,177;   -3,000;   11,000;    0,000
322,196;  -93,000;  -86,000;    0,000
322,215; -211,000; -155,000;    0,000
322,234;  -57,000;  -68,000;    0,000
322,252;  229,000;  161,000;    0,000
322,271;   54,000;  -42,000;    0,000
322,290;  153,000;   95,000;    0,000
322,308;  -40,000;   35,000;    0,000
322,327;  273,000;  138,000;    0,000
322,346;  -76,000;  -29,000;    0,000
322,364; -140,000;  -73,000;    0,000
322,383; -124,000;  -90,000;    0,000
322,402;   75,000;  121,000;    0,000
322,420; -124,000; -195,000;    0,000
322,439;   47,000;  137,000;    0,000
322,458; -209,000; -180,000;    0,000
322,476;   25,000;   97,000;    0,000
322,495; -133,000;  -99,000;    0,000
322,514;   33,000;   74,000;    0,000
322,532;  187,000;  195,000;    0,000
322,551;  251,000;  396,000;    0,000
322,570;  376,000;  211,000;    0,000
322,588;  317,000;  284,000;    0,000
322,607; -128,000;  -37,000;    0,000
322,626; -127,000; -195,000;    0,000
322,644;  -19,000;    0,000;    0,000
322,663;  125,000;  161,000;    0,000
322,681; -100,000; -136,000;    0,000
322,700;  369,000;  269,000;    0,000
322,719; -170,000; -111,000;    0,000
322,737;  124,000;   70,000;    0,000
322,756;   22,000;  -33,000;    0,000
322,775; -117,000;  -96,000;    0,000
322,793; -218,000; -247,000;    0,000
322,812;    4,000;   54,000;    0,000
322,831; -145,000; -115,000;    0,000
322,849;  200,000;  141,000;    0,000
322,868;   79,000;   58,000;    0,000
322,886;   10,000;  148,000;    0,000
322,905;   83,000;  131,000;    0,000
322,924;  -51,000;  -16,000;    0,000
322,942; -303,000; -207,000;    0,000
322,961;  291,000;  441,000;    0,000
322,979;  194,000;  180,000;    0,000
322,998;  -39,000;  -85,000;    0,000
323,017; -128,000; -126,000;    0,000
323,035;  -66,000;  -82,000;    0,000
323,054;  -13,000;   21,000;    0,000
323,072;   70,000;  110,000;    0,000
323,091;  -58,000; -110,000;    0,000
323,110;   71,000;  187,000;    0,000
323,128;  272,000;  327,000;    0,000
323,147;  155,000;   80,000;    0,000
323,165;   52,000;   49,000;    0,000
323,184;  646,000;  577,000;    0,000
323,202;  153,000;   78,000;    0,000
323,221;   29,000;  125,000;    0,000
323,240;  -81,000; -136,000;    0,000
323,258;  657,000;  468,000;    0,000
323,277; -128,000; -103,000;    0,000
323,295;  362,000;  317,000;    0,000
323,314;  188,000;   21,000;    0,000
323,332; -119,000; -128,000;    0,000
323,351; -160,000;  -52,000;    0,000
323,369;  203,000;  230,000;    0,000
323,388; -260,000; -315,000;    0,000
323,407;  319,000;  318,000;    0,000
323,425; -220,000; -180,000;    0,000
323,444;  275,000;  140,000;    0,000
323,462;  -43,000;  121,000;    0,000
323,481;  249,000;  130,000;    0,000
323,499;  155,000;  109,000;    0,000
323,518;    7,000;  -54,000;    0,000
323,536;  361,000;  340,000;    0,000
323,555;  146,000;   76,000;    0,000
323,573; -248,000; -175,000;    0,000
323,592;   61,000;  178,000;    0,000
323,610; -251,000; -245,000;    0,000
323,629;  234,000;  224,000;    0,000
323,647; -330,000; -346,000;    0,000
323,666;   43,000;   48,000;    0,000
323,684; -210,000; -149,000;    0,000
323,703;  230,000;  183,000;    0,000
323,721; -122,000; -100,000;    0,000
323,740;  614,000;  641,000;    0,000
323,758;  537,000;  658,000;    0,000
323,777;   96,000;  135,000;    0,000
323,795; -122,000; -100,000;    0,000
323,814;  196,000;  224,000;    0,000
323,832;  -92,000;   71,000;    0,000
323,851;  280,000;  169,000;    0,000
323,869;   61,000;  -26,000;    0,000
323,888;  174,000;  220,000;    0,000
323,906;  -49,000;  -24,000;    0,000
323,925;  269,000;  323,000;    0,000
323,943; -129,000; -173,000;    0,000
323,962;  342,000;  349,000;    0,000
323,980; -100,000;  -74,000;    0,000
323,999;  -73,000;  -68,000;    0,000
324,017;   20,000;  -70,000;    0,000
324,036;   25,000;   81,000;    0,000
324,054; -108,000; -119,000;    0,000
324,073;  557,000;  703,000;    0,000
324,091; -213,000; -122,000;    0,000
324,109;  -57,000;   -5,000;    0,000
324,128;  -18,000; -103,000;    0,000
324,146;  523,000;  542,000;    0,000
324,165; -100,000; -174,000;    0,000
324,183;    5,000;   17,000;    0,000
324,202;   59,000;   86,000;    0,000
324,220;  -98,000; -168,000;    0,000
324,239; -249,000; -313,000;    0,000
324,257;  205,000;   71,000;    0,000
324,275;  -14,000; -121,000;    0,000
324,294; -271,000; -321,000;    0,000
324,312;  -28,000;  142,000;    0,000
324,331;   31,000;   -5,000;    0,000
324,349;  -70,000;  -82,000;    0,000
324,368;   42,000;    7,000;    0,000
324,386; -182,000; -134,000;    0,000
324,404;  295,000;  307,000;    0,000
324,423;  -43,000;  -56,000;    0,000
324,441;  226,000;  333,000;    0,000
324,460; -116,000; -136,000;    0,000
324,478;  126,000;  103,000;    0,000
324,496;  497,000;  420,000;    0,000
324,515;   16,000;   26,000;    0,000
324,533;  -92,000;  -83,000;    0,000
324,552;  535,000;  546,000;    0,000
324,570; -156,000;  -98,000;    0,000
324,588;  712,000;  660,000;    0,000
324,607; -125,000;  -39,000;    0,000
324,625;   45,000;   28,000;    0,000
324,644;  185,000;  225,000;    0,000
324,662;  305,000;  251,000;    0,000
324,680; -105,000;  -98,000;    0,000
324,699;  -63,000;   12,000;    0,000
324,717;  -90,000; -118,000;    0,000
324,735;  -30,000;  -12,000;    0,000
324,754; -108,000; -154,000;    0,000
324,772;  369,000;  367,000;    0,000
324,791;  -86,000;  -30,000;    0,000
324,809;  130,000;   -9,000;    0,000
324,827; -152,000; -132,000;    0,000
324,846;  -85,000; -151,000;    0,000
324,864;  244,000;  252,000;    0,000
324,882; -200,000; -239,000;    0,000
324,901; -360,000; -382,000;    0,000
324,919;  287,000;  292,000;    0,000
324,937; -347,000; -395,000;    0,000
324,956;  117,000;  -16,000;    0,000
324,974;  -33,000; -103,000;    0,000
324,992;  -13,000;  -19,000;    0,000
325,011;  -77,000;  -22,000;    0,000
325,029;   94,000;   16,000;    0,000
325,047; -254,000; -132,000;    0,000
325,066;  -43,000;    2,000;    0,000
325,084; -287,000; -221,000;    0,000
325,102;  299,000;  241,000;    0,000
325,121;  104,000;  114,000;    0,000
325,139;  178,000;  128,000;    0,000
325,157; -302,000; -333,000;    0,000
325,176;  236,000;  343,000;    0,000
325,194; -241,000; -261,000;    0,000
325,212;  -79,000;  -41,000;    0,000
325,231;    6,000;   60,000;    0,000
325,249;   62,000;   85,000;    0,000
325,267;  -95,000; -140,000;    0,000
325,285;   -5,000;   83,000;    0,000
325,304;  228,000;  120,000;    0,000
325,322;  200,000;   82,000;    0,000
325,340;  170,000;   59,000;    0,000
325,359;  226,000;  348,000;    0,000
325,377;  -25,000;   48,000;    0,000
325,395;  269,000;  136,000;    0,000
325,413;   21,000;   55,000;    0,000
325,432;   34,000;  -87,000;    0,000
325,450;   58,000;   18,000;    0,000
325,468;  329,000;  246,000;    0,000
325,487;  116,000;  114,000;    0,000
325,505;  278,000;  267,000;    0,000
325,523; -150,000; -179,000;    0,000
325,541;   -8,000;  -41,000;    0,000
325,560; -174,000; -155,000;    0,000
325,578;  255,000;  191,000;    0,000
325,596;  194,000;  250,000;    0,000
325,614; -124,000; -200,000;    0,000
325,633;  337,000;  240,000;    0,000
325,651;  170,000;  202,000;    0,000
325,669;   83,000;  108,000;    0,000
325,687;   82,000;   -3,000;    0,000
325,706;  397,000;  402,000;    0,000
325,724;  118,000;   36,000;    0,000
325,742;   70,000;   79,000;    0,000
325,760;  -27,000;  -58,000;    0,000
325,779; -320,000; -469,000;    0,000
325,797; -132,000;  -29,000;    0,000
325,815; -436,000; -478,000;    0,000
325,833; -238,000; -297,000;    0,000
325,852;  -48,000;  -21,000;    0,000
325,870;  139,000;   21,000;    0,000
325,888; -279,000; -360,000;    0,000
325,906;  111,000;  143,000;    0,000
325,924; -124,000; -210,000;    0,000
325,943;  -41,000;   51,000;    0,000
325,961;  251,000;  185,000;    0,000
325,979; -190,000; -130,000;    0,000
325,997; -267,000; -210,000;    0,000
326,015;    9,000;  -63,000;    0,000
326,034; -307,000; -300,000;    0,000
326,052;  107,000;  106,000;    0,000
326,070;  -12,000;   65,000;    0,000
326,088;  208,000;  219,000;    0,000
326,106;  140,000;  121,000;    0,000
326,125;  -86,000;  -90,000;    0,000
326,143; -301,000; -331,000;    0,000
326,161;  295,000;  222,000;    0,000
326,179; -195,000; -150,000;    0,000
326,197;   17,000;   20,000;    0,000
326,216; -454,000; -419,000;    0,000
326,234;  101,000;   56,000;    0,000
326,252;   99,000;   75,000;    0,000
326,270;  240,000;  273,000;    0,000
326,288;   52,000;  -44,000;    0,000
326,306;  280,000;  156,000;    0,000
326,325;  -80,000;   52,000;    0,000
326,343;   81,000;  109,000;    0,000
326,361; -305,000; -219,000;    0,000
326,379;  201,000;  266,000;    0,000
326,397; -135,000;    2,000;    0,000
326,415;   97,000;   28,000;    0,000
326,433; -260,000; -261,000;    0,000
326,452;  201,000;  242,000;    0,000
326,470; -234,000; -261,000;    0,000
326,488;  198,000;   93,000;    0,000
326,506;   -4,000;   78,000;    0,000
326,524;  201,000;  231,000;    0,000
326,542;  356,000;  185,000;    0,000
326,560;  148,000;  135,000;    0,000
326,579;   20,000;   45,000;    0,000
326,597;  173,000;  153,000;    0,000
326,615;  298,000;  194,000;    0,000
326,633;  179,000;  192,000;    0,000
326,651;  185,000;   58,000;    0,000
326,669;   93,000;   60,000;    0,000
326,687; -166,000; -267,000;    0,000
326,705;  208,000;  259,000;    0,000
326,723;  115,000;   90,000;    0,000
326,742;  -38,000;  -81,000;    0,000
326,760;  112,000;   92,000;    0,000
326,778;  114,000;   88,000;    0,000
326,796;  -49,000; -124,000;    0,000
326,814;  -79,000;  -91,000;    0,000
326,832;   30,000;  152,000;    0,000
326,850; -101,000;  -66,000;    0,000
326,868; -432,000; -406,000;    0,000
326,886;  225,000;  182,000;    0,000
326,904;  -58,000;  -31,000;    0,000
326,922;   92,000;   84,000;    0,000
326,941; -243,000; -217,000;    0,000
326,959;  307,000;  279,000;    0,000
326,977;  -90,000;  -95,000;    0,000
326,995;   50,000;    0,000;    0,000
327,013; -131,000;  -38,000;    0,000
327,031; -180,000; -143,000;    0,000
327,049; -197,000; -312,000;    0,000
327,067;  -40,000; -144,000;    0,000
327,085;  278,000;  220,000;    0,000
327,103;  370,000;  323,000;    0,000
327,121; -327,000; -301,000;    0,000
327,139;    7,000;   26,000;    0,000
327,157;  -53,000;  -92,000;    0,000
327,175;  422,000;  464,000;    0,000
327,193;  142,000;  144,000;    0,000
327,211;  -50,000;   71,000;    0,000
327,229;   -1,000;  -43,000;    0,000
327,247;  -49,000;  -88,000;    0,000
327,266;  150,000;   80,000;    0,000
327,284;  104,000;  232,000;    0,000
327,302;   98,000;   -6,000;    0,000
327,320;  259,000;  364,000;    0,000
327,338;   39,000;   60,000;    0,000
327,356;  -14,000;  -34,000;    0,000
327,374; -143,000; -168,000;    0,000
327,392;   44,000;   67,000;    0,000
327,410; -283,000; -282,000;    0,000
327,428;  101,000;  160,000;    0,000
327,446; -142,000; -159,000;    0,000
327,464;  234,000;  256,000;    0,000
327,482;  109,000;   34,000;    0,000
327,500;   10,000;  -27,000;    0,000
327,518;  -38,000; -194,000;    0,000
327,536;  506,000;  372,000;    0,000
327,554;  178,000;  120,000;    0,000
327,572;   24,000;   11,000;    0,000
327,590; -186,000; -209,000;    0,000
327,608;  202,000;  217,000;    0,000
327,626;  250,000;  320,000;    0,000
327,644;   34,000;   30,000;    0,000
327,662; -157,000;  -68,000;    0,000
